Z(A)	C	H	O	N
-2.71707	30.4925	65.6909	0.00121977	0
-2.70345	30.1217	65.7913	0	0
-2.68983	30.2432	65.5186	0	0
-2.67621	30.143	65.3833	0.00123662	0
-2.66259	30.3756	65.1151	0.00123919	0
-2.64897	30.1034	65.8083	0.00123959	0
-2.63535	30.1549	64.8306	0.00122227	0
-2.62173	29.8341	65.4822	0	0
-2.60811	29.7583	65.29	0	0
-2.59449	29.7808	64.6853	0	0
-2.58088	29.8274	65.2763	0.00124669	0
-2.56726	29.6172	64.6616	0.00122466	0
-2.55364	29.6988	64.7426	0	0
-2.54002	29.3038	64.8222	0	0
-2.5264	29.7418	64.4201	0.00123815	0
-2.51278	29.2438	64.9707	0	0
-2.49916	29.1482	65.0174	0	0
-2.48554	28.848	64.9262	0	0
-2.47192	29.1977	64.7987	0	0
-2.4583	29.108	64.6308	0.00122324	0
-2.44468	29.1656	64.8432	0.00370697	0
-2.43106	29.1849	64.0291	0.00122736	0
-2.41744	29.0404	65.0889	0.00245956	0
-2.40382	29.2052	64.861	0	0
-2.3902	29.7823	65.3766	0.00123378	0
-2.37658	29.5935	65.5767	0	0
-2.36296	29.705	65.8245	0	0
-2.34935	29.7077	65.4613	0.00366567	0
-2.33573	29.2421	65.9897	0	0
-2.32211	30.0597	66.4391	0.00245793	0
-2.30849	30.4154	66.5064	0.00123495	0
-2.29487	30.2111	67.6324	0	0
-2.28125	30.3182	67.2926	0.00244045	0
-2.26763	30.9392	67.4292	0.00122513	0
-2.25401	31.043	68.3406	0.00122944	0
-2.24039	31.308	67.913	0	0
-2.22677	31.866	68.3569	0	0
-2.21315	31.589	68.6752	0	0
-2.19953	32.2673	68.4577	0	0
-2.18591	32.1356	69.4211	0.0012167	0
-2.17229	32.4816	70.2156	0.00123981	0
-2.15867	32.6569	69.6393	0	0
-2.14505	33.0009	70.7348	0	0
-2.13144	33.309	70.7411	0	0
-2.11782	33.2548	70.6421	0.00123238	0
-2.1042	33.7745	71.1684	0	0
-2.09058	34.0765	71.7326	0	0
-2.07696	34.52	71.4044	0	0
-2.06334	34.2888	71.5324	0	0
-2.04972	34.6415	72.3368	0	0
-2.0361	34.6183	71.9259	0	0
-2.02248	34.7318	72.4765	0.00123518	0
-2.00886	34.9502	72.7647	0.00245232	0
-1.99524	35.4131	72.0479	0	0
-1.98162	35.421	72.7548	0	0
-1.968	35.1747	72.8163	0	0
-1.95438	35.2265	72.7231	0	0
-1.94076	36.0222	72.2988	0	0
-1.92714	35.359	73.3028	0	0
-1.91352	35.8896	73.317	0.00122911	0
-1.89991	35.5924	73.2737	0	0
-1.88629	36.3844	73.3882	0.00123197	0
-1.87267	36.0274	73.4247	0	0
-1.85905	36.1012	74.0038	0	0
-1.84543	36.5225	73.5217	0.00123755	0
-1.83181	36.4884	73.5914	0	0
-1.81819	36.7212	74.6621	0	0
-1.80457	36.9432	74.0035	0	0
-1.79095	36.4986	74.183	0	0
-1.77733	37.0371	74.6241	0	0
-1.76371	37.4309	74.4663	0	0
-1.75009	37.6241	74.8798	0	0
-1.73647	37.7143	75.171	0	0
-1.72285	37.9481	75.4598	0	0
-1.70923	37.9099	75.8607	0.00121495	0
-1.69561	38.5202	75.5005	0	0
-1.682	38.4944	76.3141	0	0
-1.66838	38.8771	76.2141	0	0
-1.65476	39.223	76.3047	0	0
-1.64114	39.5374	76.6672	0.00124255	0
-1.62752	40.1916	77.506	0	0
-1.6139	40.0305	76.8084	0	0
-1.60028	40.5241	77.3718	0	0
-1.58666	40.8709	77.4787	0	0
-1.57304	41.0039	77.9244	0	0
-1.55942	41.3951	78.818	0	0
-1.5458	41.2646	77.9743	0	0
-1.53218	42.0409	77.9877	0	0
-1.51856	41.8423	78.5509	0	0
-1.50494	43.0076	78.6677	0	0
-1.49132	42.7811	79.1566	0	0
-1.4777	43.1874	79.3163	0	0
-1.46408	43.2139	79.3352	0	0
-1.45047	43.6119	79.4623	0	0
-1.43685	43.5641	79.0888	0	0
-1.42323	43.3219	79.3802	0.00121775	0
-1.40961	43.8413	79.3351	0.00123005	0
-1.39599	43.6311	79.6924	0	0
-1.38237	44.5021	79.8656	0	0
-1.36875	44.0964	79.5794	0.0024664	0
-1.35513	44.2819	79.5674	0.00242983	0
-1.34151	43.9384	79.6212	0.00122269	0
-1.32789	44.1307	79.4709	0.00122269	0
-1.31427	44.841	79.1089	0	0
-1.30065	44.2161	79.9352	0.00244044	0
-1.28703	44.624	79.5311	0.00493742	0
-1.27341	43.9422	79.3173	0.00494465	0
-1.25979	44.6077	79.3184	0.0073577	0
-1.24617	44.6678	79.3006	0.00859536	0
-1.23256	45.0222	79.9119	0.00863909	0
-1.21894	44.605	79.4458	0.0134811	0
-1.20532	44.4191	79.132	0.0135242	0
-1.1917	44.3551	79.3725	0.00866677	0
-1.17808	45.028	78.7191	0.0147302	0
-1.16446	44.6864	78.2023	0.029537	0
-1.15084	44.7682	78.3573	0.0221234	0
-1.13722	44.6722	78.2045	0.0356342	0
-1.1236	44.5211	78.2423	0.0455683	0
-1.10998	44.6828	77.7736	0.0676014	0
-1.09636	44.9304	78.0534	0.0824727	0
-1.08274	44.7956	77.4494	0.0872973	0
-1.06912	44.9776	77.4251	0.108338	0
-1.0555	44.9114	77.3509	0.148841	0
-1.04188	44.9821	76.9751	0.185815	0
-1.02826	45.1485	76.143	0.205287	0
-1.01464	44.8621	75.8921	0.241118	0
-1.00103	45.1144	75.8264	0.263128	0
-0.987406	44.6534	75.9043	0.368064	0
-0.973787	44.8637	75.8888	0.394667	0
-0.960167	44.8243	75.8015	0.427812	0
-0.946548	44.7444	75.2678	0.489518	0
-0.932929	44.4986	74.6957	0.630845	0
-0.919309	44.3113	74.4921	0.715542	0
-0.90569	43.8927	74.4073	0.805392	0
-0.89207	43.7019	74.4977	0.927313	0
-0.878451	43.6255	73.8422	1.01074	0.00244137
-0.864832	43.7045	73.7856	1.209	0
-0.851212	43.1065	73.2725	1.43269	0.00246258
-0.837593	42.6957	73.5991	1.48057	0
-0.823973	42.6546	72.7493	1.84114	0
-0.810354	42.3275	73.1137	2.06948	0.00121775
-0.796735	42.0144	72.7721	2.31763	0.00364824
-0.783115	41.6033	72.0045	2.52918	0.00371164
-0.769496	40.4776	72.0472	2.94579	0.00734528
-0.755876	39.8469	71.4268	3.19966	0.0061597
-0.742257	40.2273	71.2236	3.61509	0.0135299
-0.728638	39.2521	70.7747	4.02438	0.0209086
-0.715018	38.9899	70.8749	4.60142	0.0246353
-0.701399	38.0168	70.5959	5.03539	0.0307326
-0.687779	37.5465	69.3274	5.55887	0.060337
-0.67416	37.0391	69.285	6.04343	0.0686622
-0.660541	36.1412	68.9109	6.4234	0.102071
-0.646921	35.7488	68.76	7.06673	0.130288
-0.633302	35.1292	68.167	7.71297	0.156099
-0.619682	34.7515	68.2469	8.17277	0.1942
-0.606063	34.0594	68.0145	9.10774	0.266789
-0.592444	34.0076	67.6134	9.37699	0.254603
-0.578824	33.1432	67.1626	9.94195	0.343087
-0.565205	33.0873	67.3033	10.6309	0.415831
-0.551585	32.0589	66.5568	11.2035	0.479547
-0.537966	31.5615	66.0498	11.6418	0.567959
-0.524347	31.7099	66.0584	12.1586	0.672353
-0.510727	30.8326	65.3212	12.8769	0.794171
-0.497108	30.4109	65.06	13.4286	0.907878
-0.483489	30.3075	64.5933	13.6941	1.08868
-0.469869	29.8177	64.9035	14.4503	1.13145
-0.45625	29.4345	63.9681	14.8126	1.27583
-0.44263	29.1619	64.1493	15.307	1.38222
-0.429011	28.5659	64.2519	16.1594	1.53523
-0.415392	28.2524	63.7779	16.4443	1.72244
-0.401772	27.8938	63.4498	16.8924	1.70868
-0.388153	27.5352	62.9167	17.6129	1.92002
-0.374533	27.0148	62.9616	17.8198	2.07008
-0.360914	26.7475	62.5995	18.3443	2.20317
-0.347295	26.1324	63.1342	18.9097	2.26485
-0.333675	25.7665	62.5078	19.1038	2.19748
-0.320056	25.0941	61.908	19.4174	2.37239
-0.306436	24.5739	62.0594	20.3138	2.3902
-0.292817	24.2861	61.3758	20.3753	2.41278
-0.279198	23.7688	62.1682	20.9213	2.2527
-0.265578	22.5468	61.3268	20.8318	2.35517
-0.251959	22.3606	61.6813	21.3167	2.29141
-0.238339	21.4985	61.636	21.4593	2.24845
-0.22472	20.7919	61.0599	22.2718	2.27057
-0.211101	20.2323	61.4369	22.3013	2.20197
-0.197481	19.6518	60.9214	22.4014	2.24616
-0.183862	18.8416	61.1223	22.7879	2.04192
-0.170242	18.3213	60.6557	23.2305	2.01576
-0.156623	18.0647	61.2009	23.4311	1.94678
-0.143004	17.2983	60.9333	23.6599	1.94225
-0.129384	16.727	61.1746	23.9848	1.84576
-0.115765	15.9078	60.8271	24.1591	1.84464
-0.102145	15.3757	61.0096	24.0237	1.87427
-0.0885261	15.237	59.9641	24.4138	1.75208
-0.0749067	14.5377	61.1788	24.5081	1.74109
-0.0612873	14.4324	60.5315	24.9482	1.70461
-0.0476679	13.9939	60.6898	24.9226	1.6605
-0.0340485	13.5357	60.3073	24.9346	1.60172
-0.0204291	13.4632	60.7257	24.9882	1.6861
-0.0068097	13.2789	61.0784	25.1497	1.60596
0.0068097	13.1909	60.7593	25.1567	1.56224
0.0204291	13.1807	60.8026	25.3958	1.52331
0.0340485	13.3779	61.1187	25.1441	1.61719
0.0476679	13.4305	60.9835	25.4239	1.58907
0.0612873	13.8623	60.6874	25.252	1.55062
0.0749067	14.1319	60.7501	24.7864	1.5901
0.0885261	14.1363	60.924	25.159	1.60606
0.102145	14.7124	60.7347	25.1365	1.72262
0.115765	15.1516	60.0515	24.8458	1.73803
0.129384	15.2927	60.9341	25.2278	1.74374
0.143004	15.9387	61.0853	24.3179	1.82715
0.156623	16.5007	60.6489	24.3731	1.88063
0.170242	16.8602	60.1551	24.053	1.88077
0.183862	17.6484	60.9242	23.9023	2.1305
0.197481	18.0059	60.5619	23.7374	2.0686
0.211101	18.8485	60.9151	23.2757	2.05284
0.22472	19.1785	61.0303	22.9025	2.1759
0.238339	19.6492	60.6311	22.4361	2.16068
0.251959	20.1461	60.9527	22.2172	2.2409
0.265578	20.7488	60.7239	21.9655	2.12144
0.279198	21.5627	60.9577	21.57	2.27672
0.292817	22.3966	61.2749	21.1477	2.2007
0.306436	22.8126	61.0114	20.9031	2.08078
0.320056	23.4206	61.4184	20.6412	2.04645
0.333675	24.2015	61.4868	20.1241	1.92694
0.347295	24.7428	61.9727	19.6731	1.98502
0.360914	24.6066	61.7396	19.6579	1.88474
0.374533	25.5402	62.5084	19.3331	1.77898
0.388153	25.9162	62.4968	18.6012	1.70728
0.401772	26.55	62.6684	18.2766	1.68714
0.415392	26.9008	63.0096	17.8403	1.5922
0.429011	26.9525	62.6303	17.2392	1.52629
0.44263	27.9343	62.409	16.862	1.33887
0.45625	28.1559	63.2589	16.2432	1.327
0.469869	28.7596	63.639	15.8568	1.20631
0.483489	29.385	63.1804	15.1459	1.12666
0.497108	29.3069	63.7356	14.4388	1.04174
0.510727	29.8428	64.3989	13.9228	0.940615
0.524347	30.3666	64.129	13.4891	0.782088
0.537966	31.0583	64.4894	12.7911	0.704633
0.551585	31.364	65.1941	12.2044	0.617608
0.565205	31.8056	65.3503	11.6422	0.553369
0.578824	32.5208	65.6838	10.9953	0.471107
0.592444	33.0788	66.1285	10.5893	0.411974
0.606063	33.6458	66.1399	9.74384	0.359194
0.619682	34.2628	66.6674	8.97894	0.326889
0.633302	34.3499	67.0395	8.49909	0.25453
0.646921	34.8733	67.7295	8.13757	0.212968
0.660541	35.3524	67.9863	7.57947	0.205344
0.67416	35.7867	68.0663	6.82465	0.157328
0.687779	36.6722	68.3739	6.35925	0.135277
0.701399	37.51	69.1306	5.95488	0.126667
0.715018	37.7881	69.603	5.49971	0.127765
0.728638	38.799	69.9688	4.89209	0.108257
0.742257	38.6244	69.8934	4.44494	0.119323
0.755876	38.9159	70.3556	4.08195	0.0983083
0.769496	39.4264	70.5328	3.73578	0.0959388
0.783115	40.0456	70.9416	3.34032	0.100837
0.796735	40.7074	71.2519	2.96259	0.100796
0.810354	40.8059	71.2892	2.64705	0.0885111
0.823973	41.6724	71.9914	2.35002	0.0984148
0.837593	41.8568	72.3239	2.09844	0.0787732
0.851212	42.3277	72.4933	2.00423	0.0529381
0.864832	42.3221	72.5865	1.69402	0.0912208
0.878451	42.6803	72.8728	1.43767	0.0603076
0.89207	42.7132	73.0493	1.37762	0.0552954
0.90569	42.8007	73.575	1.15688	0.06157
0.919309	43.2641	73.4655	1.05633	0.0418921
0.932929	43.7038	74.0615	0.896304	0.029585
0.946548	43.5499	74.147	0.801929	0.0172654
0.960167	43.9818	74.9831	0.693684	0.0196697
0.973787	44.1097	75.0076	0.65188	0.0208988
0.987406	44.1742	74.9646	0.580075	0.012316
1.00103	44.1517	75.5926	0.500349	0.0110718
1.01464	44.1832	75.9739	0.422923	0.0110281
1.02826	44.1033	75.6056	0.408329	0.00859734
1.04188	44.0904	74.9723	0.374948	0.00245153
1.0555	44.1699	76.0725	0.30745	0.00247443
1.06912	43.8318	76.0474	0.27066	0.00123504
1.08274	44.3166	76.504	0.238563	0.00247992
1.09636	43.9845	76.6609	0.209193	0
1.10998	44.3899	76.8481	0.175908	0
1.1236	43.9009	76.9091	0.177085	0.00123451
1.13722	44.2718	77.4344	0.12919	0.00122744
1.15084	44.0694	77.054	0.136529	0
1.16446	43.6569	77.5734	0.121793	0
1.17808	43.9448	77.4352	0.0899397	0
1.1917	44.0782	77.8218	0.0861195	0
1.20532	44.1918	77.9938	0.0798669	0
1.21894	44.0887	77.8945	0.0614873	0
1.23256	44.4212	78.4745	0.0614782	0
1.24617	44.1403	78.3599	0.0504923	0
1.25979	44.0302	78.1816	0.0418567	0
1.27341	44.3854	78.2528	0.0270804	0
1.28703	43.6416	78.1387	0.0394763	0
1.30065	44.2233	77.8846	0.0221433	0
1.31427	43.6698	78.2787	0.0159945	0
1.32789	43.5811	78.3511	0.0197213	0
1.34151	43.9226	78.7091	0.0172172	0
1.35513	43.9451	78.936	0.0123201	0
1.36875	43.4744	79.1196	0.00367694	0
1.38237	43.587	78.7382	0.00366798	0
1.39599	43.6313	78.9109	0.00614417	0
1.40961	43.3271	78.1772	0.00614965	0
1.42323	42.8392	77.874	0.00861137	0
1.43685	42.9256	78.2123	0.00122406	0
1.45047	43.0571	78.8628	0.00245986	0
1.46408	42.9224	78.5361	0.00247992	0
1.4777	42.2431	78.0666	0	0
1.49132	42.318	77.6584	0	0
1.50494	42.1771	78.2038	0	0
1.51856	41.9925	77.5159	0.00123451	0
1.53218	41.4982	77.5871	0	0
1.5458	41.6045	77.4258	0.00244555	0
1.55942	40.7246	76.9734	0	0
1.57304	40.5274	77.0834	0.00369098	0
1.58666	40.6456	76.7875	0.00366412	0
1.60028	40.6141	77.3812	0.00122652	0
1.6139	40.0308	76.6281	0.00122727	0
1.62752	39.7631	76.5677	0.0012342	0
1.64114	39.5706	76.3128	0.00122601	0
1.65476	39.2532	75.9243	0.00244426	0
1.66838	38.9226	75.6529	0.0012342	0
1.682	38.3826	75.5362	0.00122966	0
1.69561	38.5769	74.708	0.00246423	0
1.70923	38.6477	74.9633	0	0
1.72285	38.0553	74.9126	0.00246658	0
1.73647	37.5648	75.0746	0.00123822	0
1.75009	37.6447	74.5176	0.001229	0
1.76371	37.5763	74.5961	0.00245242	0
1.77733	37.0141	74.0536	0.00614229	0
1.79095	37.154	74.0285	0.00244098	0
1.80457	36.3542	74.1703	0.00123031	0
1.81819	36.667	73.693	0.00123758	0
1.83181	36.4482	73.3601	0.00122855	0
1.84543	36.657	73.1373	0	0
1.85905	36.2933	73.7922	0	0
1.87267	35.99	72.9167	0.00493055	0
1.88629	35.9506	73.3708	0.00247229	0
1.89991	35.7042	73.0444	0.00122799	0
1.91352	35.7435	72.7306	0.00245707	0
1.92714	35.1675	72.2773	0.00122212	0
1.94076	35.3438	71.9361	0	0
1.95438	35.3038	72.4067	0.00247476	0
1.968	35.0079	72.152	0.00246908	0
1.98162	34.9632	72.5584	0.00245128	0
1.99524	34.9812	71.4099	0	0
2.00886	34.7455	71.7398	0.00122846	0
2.02248	34.4552	71.7111	0.00122855	0
2.0361	34.7221	71.086	0.00122212	0
2.04972	34.171	71.4037	0	0
2.06334	33.8289	71.4048	0	0
2.07696	34.4373	71.349	0	0
2.09058	34.1399	71.1181	0	0
2.1042	33.5326	70.0443	0.00123395	0
2.11782	33.4485	70.8566	0.00123846	0
2.13144	33.3859	70.1414	0.00122846	0
2.14505	33.0999	70.2356	0	0
2.15867	33.0429	69.8771	0	0
2.17229	33.193	69.3966	0	0
2.18591	32.2726	69.5786	0	0
2.19953	32.3036	69.1843	0	0
2.21315	32.1818	69.1434	0	0
2.22677	32.2238	68.7491	0.00123326	0
2.24039	31.8341	68.8764	0.00123131	0
2.25401	31.2928	68.5546	0	0
2.26763	31.2507	67.8667	0	0
2.28125	30.8179	67.7345	0	0
2.29487	31.189	67.2512	0	0
2.30849	30.7494	66.5515	0.00245828	0
2.32211	30.7	67.4196	0	0
2.33573	30.4483	66.8021	0	0
2.34935	30.2193	66.3839	0	0
2.36296	29.9595	66.5198	0	0
2.37658	29.8219	65.5326	0.00122842	0
2.3902	29.5517	65.5335	0.00243554	0
2.40382	29.5446	65.3171	0.00246161	0
2.41744	29.4697	65.3292	0	0
2.43106	29.6378	65.4188	0	0
2.44468	29.4222	65.0456	0.00370731	0
2.4583	29.7286	65.0427	0	0
2.47192	29.7742	64.9098	0	0
2.48554	29.7857	65.1506	0	0
2.49916	29.4068	64.4725	0	0
2.51278	28.948	64.8566	0	0
2.5264	29.723	65.139	0.0024485	0
2.54002	29.3951	65.0367	0.00122916	0
2.55364	29.6203	65.1338	0	0
2.56726	29.7286	65.1129	0.00244481	0
2.58088	29.7171	65.5342	0	0
2.59449	30.2138	65.6018	0.00244705	0
2.60811	30.206	65.0785	0.00242939	0
2.62173	29.7483	64.9276	0.00246331	0
2.63535	30.3537	65.0719	0.00246662	0
2.64897	30.1466	65.6276	0	0
2.66259	30.2239	65.5135	0	0
2.67621	30.3057	65.3685	0	0
2.68983	30.0493	65.7692	0	0
2.70345	30.2326	65.4585	0.00123902	0
2.71707	30.0978	65.8333	0.00122542	0
